File: dealloy_example/ExpDat_dealloy_Al_12122023_MACT_A_pink_label_20Kmin_20O2_80Ar_1200C_round_2.csv
#EXPORTTYPE:                 ,DATA ALL
#FILE:                       ,dealloy_Al_12122023_MACT_A_pink_label_20Kmin_20O2_80Ar_1200C_round_2.ngb-ds3
#FORMAT:                     ,NETZSCH5
#FTYPE:                      ,ANSI
#IDENTITY:                   ,De_alloy_MACT_pk_R2
#DECIMAL:                    ,POINT
#SEPARATOR:                  ,COMMA
#MTYPE:                      ,DSC
#INSTRUMENT:                 ,NETZSCH STA 449F3
#PROJECT:                    ,nano-Al
#DATE/TIME:                  ,12/12/2023 3:12:41 PM (UTC-5)
#CORR. FILE:                 ,BL_11012023_20Kmin_1200C_10O2_40Ar.ngb-bs3
#TEMPCAL:                    ,03-05-2023 11:25
#SENSITIVITY:                ,03-05-2023 11:53
#LABORATORY:                 ,calorimetry lab
#OPERATOR:                   ,YP
#REMARK:                     ,dealloy_Al_12122023_MACT_A_pink_label_20Kmin_20O2_80Ar_1200C_round_2
#SAMPLE:                     ,De_alloy_MACT_pk_R2
#SAMPLE MASS /mg:            ,5.3231
#MATERIAL:                   ,mt
#REFERENCE:                  ,empty
#REFERENCE MASS /mg:         ,0
#TYPE OF CRUCIBLE:           ,Al2O3 85 µl, with lid
#SAMPLE CRUCIBLE MASS /mg:   ,0
#REFERENCE CRUCIBLE MASS /mg:,0
#DSC RANGE /µV:              ,5000
#TG RANGE /mg:               ,35000
#TAU-R:                      ,---
#CORR. CODE:                 ,020
#EXO:                        ,+1
#RANGE:                      ,50°C/20.0(K/min)/1200°C
#SEGMENT:                    ,S3/3
#SEG. 3:                     ,50°C/20.0(K/min)/1200°C

##Temp./°C,Time/min,DSC/(mW/mg),Mass/%,Sensit./(uV/mW)
  49.66200,36.01333,-7.600132e-03, 99.42045,0.73548
  49.71600,36.29333,-1.753796e-03, 99.47023,0.73551
  49.98300,36.57333, 1.850810e-02, 99.48282,0.73568
  50.65500,36.85333, 5.724524e-02, 99.45164,0.73609
  51.83400,37.13333,      0.10582, 99.41425,0.73682
  53.56800,37.41333,      0.16918, 99.47455,0.73788
  55.82100,37.69333,      0.23577, 99.49315,0.73922
  58.54800,37.97333,      0.30839, 99.46197,0.74082
  61.64700,38.25333,      0.37097, 99.41218,0.74258
  65.11600,38.53333,      0.45049, 99.48282,0.74449
  68.90100,38.81333,      0.52914, 99.47023,0.74651
  73.05200,39.09333,      0.63294, 99.43905,0.74863
  77.56900,39.37333,      0.75973, 99.42270,0.75084
  82.48700,39.65333,      0.91177, 99.46629,0.75312
  87.78700,39.93333,      1.09510, 99.39340,0.75544
  93.48100,40.21333,      1.31228, 99.41218,0.75777
  99.49100,40.49333,      1.55859, 99.34568,0.76004
 105.764,40.77333,      1.83188, 99.35395,0.76222
 112.28,41.05333,      2.14240, 99.26471,0.76426
 119.018,41.33333,      2.48544, 99.17943,0.76615
 125.978,41.61333,      2.87243, 99.09226,0.76787
 133.106,41.89333,      3.28354, 98.96959,0.76937
 140.412,42.17333,      3.72275, 98.94272,0.77066
 147.867,42.45333,      4.18445, 98.82211,0.77170
 155.362,42.73333,      4.65039, 98.74321,0.77248
 162.923,43.01333,      5.13437, 98.68498,0.77300
 170.536,43.29333,      5.60703, 98.59781,0.77325
 178.144,43.57333,      6.07795, 98.60401,0.77323
 185.766,43.85333,      6.56001, 98.58954,0.77296
 193.36,44.13333,      7.06293, 98.53976,0.77242
 200.913,44.41333,      7.59663, 98.51459,0.77164
 208.403,44.69333,      8.15452, 98.56456,0.77063
 215.822,44.97333,      8.73315, 98.56456,0.76940
 223.136,45.25333,      9.30341, 98.52511,0.76796
 230.347,45.53333,      9.83955, 98.57489,0.76634
 237.457,45.81333,     10.31193, 98.58748,0.76453
 244.461,46.09333,     10.70013, 98.66018,0.76257
 251.347,46.37333,     11.01461, 98.68911,0.76046
 258.103,46.65333,     11.26377, 98.77027,0.75822
 264.766,46.93333,     11.45113, 98.69550,0.75585
 271.315,47.21333,     11.60311, 98.82024,0.75337
 277.75,47.49333,     11.72938, 98.85537,0.75080
 284.086,47.77333,     11.81508, 98.95512,0.74813
 290.328,48.05333,     11.85296, 99.01129,0.74538
 296.464,48.33333,     11.84942, 98.95512,0.74255
 302.516,48.61333,     11.79179, 99.04248,0.73965
 308.499,48.89333,     11.70820, 99.10259,0.73668
 314.405,49.17333,     11.60187, 99.12551,0.73365
 320.264,49.45333,     11.49616, 99.29797,0.73055
 326.052,49.73333,     11.38525, 99.26885,0.72739
 331.794,50.01333,     11.26957, 99.46422,0.72417
 337.493,50.29333,     11.14957, 99.55139,0.72090
 343.153,50.57333,     11.02934, 99.66974,0.71757
 348.761,50.85333,     10.89499, 99.76330,0.71420
 354.353,51.13333,     10.76553, 99.91697,0.71076
 359.907,51.41333,     10.63852,100.027,0.70729
 365.443,51.69333,     10.50677,100.183,0.70376
 370.98,51.97333,     10.38013,100.33,0.70016
 376.477,52.25333,     10.25987,100.451,0.69654
 381.978,52.53333,     10.13114,100.542,0.69285
 387.457,52.81333,     10.01261,100.659,0.68913
 392.939,53.09333,      9.91321,100.773,0.68536
 398.423,53.37333,      9.82541,100.817,0.68153
 403.887,53.65333,      9.76583,100.86,0.67768
 409.369,53.93333,      9.73553,101.012,0.67377
 414.834,54.21333,      9.74316,101.064,0.66983
 420.29,54.49333,      9.81506,101.116,0.66585
 425.775,54.77333,      9.95018,101.328,0.66182
 431.258,55.05333,     10.16416,101.413,0.65776
 436.74,55.33333,     10.48741,101.579,0.65367
 442.237,55.61333,     10.91140,101.72,0.64954
 447.727,55.89333,     11.43314,101.98,0.64538
 453.238,56.17333,     12.06613,102.192,0.64118
 458.738,56.45333,     12.81126,102.443,0.63697
 464.256,56.73333,     13.68233,102.641,0.63273
 469.766,57.01333,     14.68701,102.985,0.62847
 475.299,57.29333,     15.84333,103.499,0.62418
 480.813,57.57333,     17.15137,103.926,0.61989
 486.351,57.85333,     18.60591,104.442,0.61557
 491.901,58.13333,     20.19280,105.131,0.61123
 497.454,58.41333,     21.85164,105.776,0.60688
 502.996,58.69333,     23.48887,106.567,0.60253
 508.55,58.97333,     24.94702,107.429,0.59817
 514.092,59.25333,     26.02026,108.364,0.59382
 519.596,59.53333,     26.56333,109.245,0.58950
 525.09,59.81333,     26.59666,110.094,0.58518
 530.567,60.09333,     26.23467,110.921,0.58089
 536.03,60.37333,     25.65275,111.644,0.57661
 541.466,60.65333,     24.95820,112.436,0.57236
 546.92,60.93333,     24.27490,113.009,0.56811
 552.37,61.21333,     23.64831,113.666,0.56387
 557.835,61.49333,     23.08159,114.276,0.55964
 563.293,61.77333,     22.63703,114.866,0.55542
 568.785,62.05333,     22.33116,115.481,0.55119
 574.272,62.33333,     22.24713,115.932,0.54698
 579.792,62.61333,     22.54441,116.505,0.54277
 585.323,62.89333,     23.51563,117.181,0.53857
 590.914,63.17333,     25.75791,117.914,0.53435
 596.536,63.45333,     30.51097,118.963,0.53013
 602.458,63.73333,     52.42441,121.186,0.52571
 608.099,64.01333,     36.93068,122.721,0.52153
 613.36,64.29333,     27.94549,123.234,0.51766
 618.695,64.57333,     23.03142,123.615,0.51376
 624.063,64.85333,     19.81805,123.918,0.50987
 629.504,65.13333,     17.54035,124.032,0.50595
 634.975,65.41333,     15.84801,124.213,0.50205
 640.463,65.69333,     14.57476,124.381,0.49816
 645.983,65.97333,     13.63522,124.417,0.49429
 651.526,66.25333,     12.95124,124.537,0.49044
 657.079,66.53333,     12.45566,124.566,0.48662
 662.654,66.81333,     11.63788,124.572,0.48282
 668.243,67.09333,     12.06036,124.701,0.47905
 673.826,67.37333,     12.15276,124.701,0.47532
 679.431,67.65333,     12.16996,124.701,0.47162
 685.028,67.93333,     12.17334,124.745,0.46797
 690.626,68.21333,     12.21888,124.709,0.46436
 696.229,68.49333,     12.25659,124.699,0.46079
 701.829,68.77333,     12.31027,124.724,0.45727
 707.427,69.05333,     12.36637,124.724,0.45379
 713.033,69.33333,     12.40759,124.724,0.45036
 718.621,69.61333,     12.45108,124.743,0.44698
 724.231,69.89333,     12.49301,124.78,0.44363
 729.819,70.17333,     12.54039,124.682,0.44034
 735.422,70.45333,     12.57164,124.587,0.43709
 741.019,70.73333,     12.62238,124.645,0.43389
 746.626,71.01333,     12.64302,124.657,0.43074
 752.226,71.29333,     12.69998,124.608,0.42763
 757.825,71.57333,     12.75699,124.547,0.42457
 763.444,71.85333,     12.81948,124.705,0.42155
 769.059,72.13333,     12.88439,124.601,0.41859
 774.669,72.41333,     12.96208,124.41,0.41567
 780.273,72.69333,     13.06216,124.45,0.41280
 785.886,72.97333,     13.19860,124.572,0.40998
 791.476,73.25333,     13.34694,124.576,0.40721
 797.09,73.53333,     13.49432,124.458,0.40449
 802.705,73.81333,     13.65242,124.375,0.40181
 808.314,74.09333,     13.85218,124.342,0.39918
 813.92,74.37333,     14.07417,124.321,0.39660
 819.532,74.65333,     14.30325,124.362,0.39407
 825.149,74.93333,     14.46519,124.209,0.39158
 830.774,75.21333,     14.54725,124.265,0.38913
 836.381,75.49333,     14.50155,124.196,0.38674
 842.002,75.77333,     14.32288,124.269,0.38439
 847.611,76.05333,     14.05385,124.103,0.38209
 853.224,76.33333,     13.74903,124.186,0.37984
 858.84,76.61333,     13.47240,124.074,0.37762
 864.458,76.89333,     13.25663,124.119,0.37546
 870.062,77.17333,     13.13030,124.227,0.37334
 875.685,77.45333,     13.06224,124.142,0.37126
 881.302,77.73333,     13.06364,124.313,0.36922
 886.898,78.01333,     13.08240,124.383,0.36723
 892.518,78.29333,     13.09389,124.325,0.36528
 898.138,78.57333,     13.12571,124.398,0.36337
 903.767,78.85333,     13.15133,124.311,0.36149
 909.38,79.13333,     13.18393,124.477,0.35967
 915.012,79.41333,     13.21644,124.568,0.35787
 920.625,79.69333,     13.27015,124.583,0.35612
 926.25,79.97333,     13.33727,124.541,0.35440
 931.865,80.25333,     13.44252,124.809,0.35273
 937.488,80.53333,     13.52419,124.797,0.35108
 943.103,80.81333,     13.61049,124.921,0.34948
 948.72,81.09333,     13.66080,125.054,0.34791
 954.337,81.37333,     13.69699,125.015,0.34637
 959.94,81.65333,     13.77193,125.191,0.34487
 965.558,81.93333,     13.83720,125.356,0.34340
 971.163,82.21333,     13.85384,125.457,0.34196
 976.76,82.49333,     13.89370,125.574,0.34056
 982.369,82.77333,     13.88125,125.732,0.33918
 987.993,83.05333,     13.86765,125.827,0.33783
 993.605,83.33333,     13.81690,125.923,0.33651
 999.229,83.61333,     13.74893,126.051,0.33521
1004.85,83.89333,     13.66558,126.284,0.33394
1010.47,84.17333,     13.57238,126.448,0.33270
1016.09,84.45333,     13.48913,126.48,0.33148
1021.73,84.73333,     13.36239,126.71,0.33028
1027.36,85.01333,     13.14754,126.816,0.32910
1032.98,85.29333,     12.98304,126.905,0.32795
1038.61,85.57333,     12.76971,127.184,0.32682
1044.24,85.85333,     12.47536,127.18,0.32571
1049.86,86.13333,     12.13803,127.346,0.32461
1055.48,86.41333,     11.78583,127.641,0.32354
1061.09,86.69333,     11.36832,127.531,0.32249
1066.71,86.97333,     10.86334,127.979,0.32145
1072.31,87.25333,     10.21183,128.114,0.32043
1077.94,87.53333,      9.45438,127.998,0.31942
1083.55,87.81333,      8.63093,128.337,0.31842
1089.16,88.09333,      7.72571,128.243,0.31744
1094.77,88.37333,      6.97268,128.262,0.31647
1100.4,88.65333,      6.72181,128.285,0.31551
1106.02,88.93333,      6.62135,128.12,0.31456
1111.62,89.21333,      6.04887,128.191,0.31362
1117.25,89.49333,      5.37342,128.081,0.31269
1122.86,89.77333,      4.83167,128.023,0.31177
1128.48,90.05333,      4.42034,127.938,0.31085
1134.1,90.33333,      4.11563,127.946,0.30994
1139.72,90.61333,      3.90647,128.033,0.30903
1145.33,90.89333,      3.72437,127.84,0.30814
1150.91,91.17333,      3.67312,127.747,0.30725
1156.55,91.45333,      3.81441,127.767,0.30635
1162.17,91.73333,      3.72936,127.678,0.30546
1167.79,92.01333,      3.63015,127.77,0.30457
1173.42,92.29333,      3.47703,127.718,0.30367
1179.04,92.57333,      3.37554,127.776,0.30278
1184.68,92.85333,      3.31952,127.634,0.30189
1190.29,93.13333,      3.30077,127.759,0.30100
1195.43,93.41333,     12.07684,127.792,0.30019
1197.14,93.49333,     12.45722,127.651,0.29991