File: dealloy_example/ExpDat_dealloy_Al_12072023_MACT_A_pink_label_20Kmin_20O2_80Ar_1200C_round_1.csv
#EXPORTTYPE:                 ,DATA ALL
#FILE:                       ,dealloy_Al_12072023_MACT_A_pink_label_20Kmin_20O2_80Ar_1200C_round_1.ngb-ds3
#FORMAT:                     ,NETZSCH5
#FTYPE:                      ,ANSI
#IDENTITY:                   ,DeAl_MACTA_pk_r1
#DECIMAL:                    ,POINT
#SEPARATOR:                  ,COMMA
#MTYPE:                      ,DSC
#INSTRUMENT:                 ,NETZSCH STA 449F3
#PROJECT:                    ,nano-Al
#DATE/TIME:                  ,12/7/2023 2:29:46 PM (UTC-5)
#CORR. FILE:                 ,BL_11012023_20Kmin_1200C_10O2_40Ar.ngb-bs3
#TEMPCAL:                    ,03-05-2023 11:25
#SENSITIVITY:                ,03-05-2023 11:53
#LABORATORY:                 ,calorimetry lab
#OPERATOR:                   ,YP
#REMARK:                     ,DeAlloyed_Al_MACTA-pink_label_run1_20O2_80Ar_1200C_20Cmin
#SAMPLE:                     ,DeAl_MACTA_pk_r1
#SAMPLE MASS /mg:            ,5.0124
#MATERIAL:                   ,mt
#REFERENCE:                  ,empty
#REFERENCE MASS /mg:         ,0
#TYPE OF CRUCIBLE:           ,Al2O3 85 µl, with lid
#SAMPLE CRUCIBLE MASS /mg:   ,0
#REFERENCE CRUCIBLE MASS /mg:,0
#DSC RANGE /µV:              ,5000
#TG RANGE /mg:               ,35000
#TAU-R:                      ,---
#CORR. CODE:                 ,020
#EXO:                        ,+1
#RANGE:                      ,50°C/20.0(K/min)/1200°C
#SEGMENT:                    ,S3/3
#SEG. 3:                     ,50°C/20.0(K/min)/1200°C

##Temp./°C,Time/min,DSC/(mW/mg),Mass/%,Sensit./(uV/mW)
  49.64500,36.01250,-2.814625e-02, 98.79319,0.73547
  49.70800,36.29250,-1.862520e-02, 98.76666,0.73551
  49.97400,36.57250, 1.944860e-02, 98.79758,0.73567
  50.63000,36.85250,      0.10277, 98.78202,0.73608
  51.83200,37.13250,      0.21525, 98.76446,0.73682
  53.53400,37.41250,      0.35605, 98.73135,0.73785
  55.78900,37.69250,      0.50057, 98.85723,0.73920
  58.48700,37.97250,      0.64108, 98.70042,0.74078
  61.60100,38.25250,      0.77381, 98.67169,0.74255
  65.06200,38.53250,      0.90758, 98.73813,0.74446
  68.89400,38.81250,      1.04763, 98.72696,0.74650
  73.00900,39.09250,      1.21120, 98.67169,0.74861
  77.54100,39.37250,      1.40265, 98.65633,0.75083
  82.44800,39.65250,      1.61386, 98.66072,0.75310
  87.76400,39.93250,      1.85853, 98.59010,0.75543
  93.43700,40.21250,      2.11900, 98.58810,0.75775
  99.45300,40.49250,      2.38762, 98.47319,0.76003
 105.723,40.77250,      2.65559, 98.44226,0.76220
 112.234,41.05250,      2.94284, 98.27468,0.76425
 118.95,41.33250,      3.24214, 98.04964,0.76614
 125.892,41.61250,      3.56814, 97.93033,0.76785
 133.039,41.89250,      3.92199, 97.71646,0.76936
 140.33,42.17250,      4.30139, 97.58639,0.77064
 147.747,42.45250,      4.72656, 97.30389,0.77169
 155.258,42.73250,      5.17358, 97.10977,0.77247
 162.812,43.01250,      5.67124, 96.89570,0.77299
 170.395,43.29250,      6.19574, 96.63534,0.77324
 178.022,43.57250,      6.75586, 96.46118,0.77323
 185.635,43.85250,      7.32536, 96.32651,0.77296
 193.257,44.13250,      7.90027, 96.08172,0.77243
 200.822,44.41250,      8.46900, 95.90735,0.77166
 208.312,44.69250,      9.01416, 95.71762,0.77065
 215.716,44.97250,      9.53024, 95.49477,0.76942
 223.015,45.25250,      9.98759, 95.26754,0.76799
 230.218,45.53250,     10.38370, 95.05566,0.76637
 237.336,45.81250,     10.72351, 94.86154,0.76456
 244.327,46.09250,     11.00573, 94.72927,0.76261
 251.204,46.37250,     11.24414, 94.55929,0.76050
 257.979,46.65250,     11.44721, 94.39390,0.75826
 264.629,46.93250,     11.62430, 94.15330,0.75590
 271.182,47.21250,     11.79825, 94.03659,0.75342
 277.619,47.49250,     11.97896, 93.99250,0.75085
 283.967,47.77250,     12.17735, 93.81354,0.74818
 290.202,48.05250,     12.39928, 93.78721,0.74543
 296.378,48.33250,     12.61234, 93.54002,0.74259
 302.455,48.61250,     12.79898, 93.44306,0.73968
 308.464,48.89250,     12.97497, 93.37463,0.73670
 314.42,49.17250,     13.14337, 93.26430,0.73364
 320.298,49.45250,     13.31065, 93.18929,0.73053
 326.111,49.73250,     13.45886, 93.07896,0.72736
 331.89,50.01250,     13.59325, 93.04146,0.72412
 337.596,50.29250,     13.70155, 93.03487,0.72084
 343.281,50.57250,     13.79090, 93.10989,0.71749
 348.914,50.85250,     13.85594, 93.01273,0.71411
 354.528,51.13250,     13.90156, 93.05243,0.71066
 360.101,51.41250,     13.92436, 93.03268,0.70716
 365.636,51.69250,     13.94212, 93.09213,0.70363
 371.164,51.97250,     13.94989, 93.20924,0.70004
 376.685,52.25250,     13.95358, 93.24675,0.69640
 382.166,52.53250,     13.95197, 93.30620,0.69273
 387.651,52.81250,     13.95455, 93.34371,0.68900
 393.126,53.09250,     13.96450, 93.32396,0.68523
 398.587,53.37250,     13.99521, 93.37902,0.68142
 404.045,53.65250,     14.04132, 93.45643,0.67757
 409.504,53.93250,     14.10265, 93.58631,0.67367
 414.962,54.21250,     14.19554, 93.62401,0.66973
 420.428,54.49250,     14.33025, 93.72536,0.66575
 425.883,54.77250,     14.50422, 93.86442,0.66174
 431.335,55.05250,     14.74165, 93.87120,0.65770
 436.81,55.33250,     15.04624, 94.01444,0.65362
 442.292,55.61250,     15.42742, 94.10263,0.64949
 447.772,55.89250,     15.88745, 94.33645,0.64535
 453.253,56.17250,     16.40631, 94.47770,0.64117
 458.73,56.45250,     17.02472, 94.67860,0.63698
 464.23,56.73250,     17.73418, 94.78673,0.63275
 469.734,57.01250,     18.52138, 95.02494,0.62850
 475.227,57.29250,     19.42318, 95.38006,0.62424
 480.741,57.57250,     20.44050, 95.76191,0.61994
 486.265,57.85250,     21.59210, 96.05059,0.61563
 491.786,58.13250,     22.87972, 96.54277,0.61132
 497.317,58.41250,     24.30364, 97.04373,0.60698
 502.858,58.69250,     25.85065, 97.61272,0.60264
 508.401,58.97250,     27.45065, 98.27687,0.59829
 513.952,59.25250,     29.00451, 98.96297,0.59393
 519.484,59.53250,     30.38512, 99.80369,0.58958
 525.008,59.81250,     31.44349,100.554,0.58525
 530.525,60.09250,     32.07982,101.357,0.58092
 536.03,60.37250,     32.28106,102.162,0.57661
 541.515,60.65250,     32.10583,102.908,0.57233
 546.972,60.93250,     31.69146,103.616,0.56807
 552.441,61.21250,     31.15007,104.322,0.56382
 557.898,61.49250,     30.55816,105.01,0.55959
 563.363,61.77250,     30.01324,105.681,0.55536
 568.847,62.05250,     29.55241,106.255,0.55114
 574.332,62.33250,     29.27475,106.844,0.54694
 579.835,62.61250,     29.31081,107.119,0.54274
 585.355,62.89250,     29.88879,107.914,0.53855
 590.893,63.17250,     31.35264,108.567,0.53437
 596.473,63.45250,     34.01856,109.405,0.53018
 602.082,63.73250,     37.60925,110.55,0.52599
 607.711,64.01250,     40.52321,111.68,0.52182
 613.297,64.29250,     40.53191,112.99,0.51771
 618.81,64.57250,     37.66558,113.97,0.51368
 624.255,64.85250,     33.62396,114.835,0.50973
 629.693,65.13250,     29.66970,115.077,0.50582
 635.147,65.41250,     26.34113,115.402,0.50193
 640.597,65.69250,     23.78736,115.534,0.49807
 646.077,65.97250,     21.92648,115.742,0.49423
 651.591,66.25250,     20.61076,115.896,0.49039
 657.119,66.53250,     19.71213,115.944,0.48659
 662.67,66.81250,     18.70483,115.911,0.48281
 668.243,67.09250,     19.02094,116.088,0.47905
 673.834,67.37250,     18.99089,115.991,0.47532
 679.431,67.65250,     18.93467,116.105,0.47162
 685.035,67.93250,     18.91052,116.132,0.46797
 690.618,68.21250,     18.93550,116.108,0.46437
 696.238,68.49250,     18.95674,116.11,0.46079
 701.818,68.77250,     18.99042,116.11,0.45728
 707.422,69.05250,     19.01433,116.163,0.45380
 713.031,69.33250,     19.02364,116.163,0.45036
 718.643,69.61250,     19.03871,116.125,0.44696
 724.234,69.89250,     19.04908,116.191,0.44363
 729.833,70.17250,     19.06058,116.055,0.44033
 735.434,70.45250,     19.07373,116,0.43709
 741.056,70.73250,     19.09816,116.008,0.43387
 746.646,71.01250,     19.11297,116.064,0.43073
 752.248,71.29250,     19.15962,116.015,0.42762
 757.843,71.57250,     19.22721,115.973,0.42456
 763.45,71.85250,     19.28521,116.046,0.42155
 769.047,72.13250,     19.36375,115.958,0.41859
 774.647,72.41250,     19.43317,115.755,0.41568
 780.262,72.69250,     19.53263,115.774,0.41281
 785.866,72.97250,     19.66319,115.909,0.40999
 791.458,73.25250,     19.79816,115.858,0.40722
 797.07,73.53250,     19.93761,115.633,0.40450
 802.664,73.81250,     20.11513,115.66,0.40183
 808.282,74.09250,     20.32749,115.633,0.39920
 813.893,74.37250,     20.54423,115.618,0.39661
 819.52,74.65250,     20.77328,115.547,0.39407
 825.135,74.93250,     20.99002,115.459,0.39158
 830.753,75.21250,     21.17145,115.508,0.38914
 836.377,75.49250,     21.25866,115.468,0.38674
 841.993,75.77250,     21.24203,115.534,0.38439
 847.614,76.05250,     21.13631,115.329,0.38209
 853.234,76.33250,     20.96544,115.417,0.37983
 858.834,76.61250,     20.75131,115.3,0.37763
 864.461,76.89250,     20.52551,115.309,0.37546
 870.066,77.17250,     20.35905,115.371,0.37334
 875.673,77.45250,     20.21911,115.276,0.37126
 881.292,77.73250,     20.13485,115.406,0.36922
 886.904,78.01250,     20.09073,115.468,0.36723
 892.506,78.29250,     20.05447,115.377,0.36528
 898.116,78.57250,     20.06849,115.448,0.36338
 903.728,78.85250,     20.08255,115.404,0.36151
 909.362,79.13250,     20.09576,115.554,0.35967
 914.989,79.41250,     20.10677,115.678,0.35788
 920.61,79.69250,     20.11345,115.633,0.35612
 926.228,79.97250,     20.13089,115.589,0.35441
 931.847,80.25250,     20.17400,115.832,0.35273
 937.467,80.53250,     20.21112,115.805,0.35109
 943.098,80.81250,     20.24975,115.958,0.34948
 948.714,81.09250,     20.28427,116.046,0.34791
 954.342,81.37250,     20.26721,115.984,0.34637
 959.955,81.65250,     20.26414,116.143,0.34487
 965.563,81.93250,     20.26304,116.291,0.34340
 971.174,82.21250,     20.23253,116.406,0.34196
 976.784,82.49250,     20.20976,116.496,0.34055
 982.39,82.77250,     20.13651,116.611,0.33918
 988.025,83.05250,     20.06857,116.688,0.33782
 993.639,83.33250,     19.99224,116.752,0.33650
 999.254,83.61250,     19.88601,116.847,0.33521
1004.87,83.89250,     20.07509,117.067,0.33394
1010.5,84.17250,     19.83736,117.182,0.33269
1016.14,84.45250,     19.64326,117.233,0.33147
1021.75,84.73250,     19.42818,117.392,0.33027
1027.38,85.01250,     19.15713,117.643,0.32910
1033,85.29250,     18.87068,117.672,0.32795
1038.62,85.57250,     18.59134,117.866,0.32682
1044.23,85.85250,     18.22095,117.833,0.32571
1049.85,86.13250,     17.78002,118.08,0.32462
1055.48,86.41250,     17.33566,118.279,0.32354
1061.09,86.69250,     16.83540,118.146,0.32249
1066.69,86.97250,     16.29682,118.59,0.32145
1072.32,87.25250,     15.63411,118.766,0.32042
1077.93,87.53250,     14.91285,118.643,0.31942
1083.55,87.81250,     14.09811,119.049,0.31842
1089.15,88.09250,     13.15293,119.057,0.31744
1094.78,88.37250,     12.11501,119.128,0.31647
1100.39,88.65250,     11.04364,119.156,0.31551
1106.02,88.93250,      9.98928,119.159,0.31456
1111.63,89.21250,      9.13974,119.271,0.31362
1117.25,89.49250,      8.50886,119.218,0.31269
1122.86,89.77250,      8.15957,119.117,0.31177
1128.48,90.05250,      8.06171,119.119,0.31085
1134.09,90.33250,      8.08732,119.004,0.30994
1139.69,90.61250,      7.93214,118.947,0.30904
1145.29,90.89250,      7.68063,118.601,0.30814
1150.91,91.17250,      7.39690,118.459,0.30724
1156.54,91.45250,      7.09306,118.437,0.30635
1162.17,91.73250,      6.73112,118.285,0.30546
1167.79,92.01250,      6.45843,118.382,0.30457
1173.42,92.29250,      6.20171,118.305,0.30367
1179.05,92.57250,      6.01082,118.36,0.30278
1184.66,92.85250,      5.89392,118.243,0.30189
1190.29,93.13250,      5.84767,118.349,0.30100
1195.5,93.41250,     13.83755,118.329,0.30017
1196.93,93.47917,     14.09316,118.391,0.29995